\STAR_ID                            = "2MASS J14045900+2952340"
\DATA_CATEGORY                      = "Planet Radial Velocity Curve"
\NUMBER_OF_POINTS                   = "35"
\TIME_REFERENCE_FRAME               = "FCJD"
\MINIMUM_DATE                       = "2455613.974352"
\DATE_UNITS                         = "days"
\MAXIMUM_DATE                       = "2456048.807477"
\MINIMUM_VALUE                      = "-9819.244"
\VALUE_UNITS                        = "m/s"
\MAXIMUM_VALUE                      = "3457.390"
\REFERENCE                          = "Thomas et al. 2016 (PASP, 128, 5003)"
\BIBCODE                            = "2016PASP..128d5003T"
\TELESCOPE                          = "2.5m Sloan Foundation Telescope"
\INSTRUMENT                         = "MARVELS"
\WAVELENGTH_CALIBRATION_TECHNIQUE   = "Tungsten Iodine Lamp"
\OBSERVATORY_SITE                   = "Apache Point Observatory, New Mexico"
\COLUMN_FCJD                        = "Flux Centered Julian Date of observation"
\COLUMN_RADIAL_VELOCITY             = "Radial velocity relative to barycenter"
\COLUMN_RADIAL_VELOCITY_UNCERTAINTY = "Uncertainty in RADIAL_VELOCITY"
|           FCJD |   Radial_Velocity |   Radial_Velocity_Uncertainty |
|         double |            double |                        double |
|           days |               m/s |                           m/s |
  2455613.974352            -571.559                         115.165
  2455614.949688            -395.132                         103.186
  2455615.949375            -382.184                         122.457
  2455635.872095             551.425                          79.288
  2455636.946285             582.605                          83.364
  2455636.987257             492.877                          70.695
  2455637.961215             683.104                          64.319
  2455638.936354             530.517                          73.771
  2455638.976609             512.779                          74.360
  2455639.964884             743.401                          76.413
  2455640.941157             930.626                          65.974
  2455641.940532             995.752                          97.227
  2455643.927801            1074.244                          87.530
  2455644.959792             883.102                          97.726
  2455645.953368            1025.061                          79.482
  2455667.878391            1672.113                          94.462
  2455668.890775            1993.649                          94.587
  2455669.907975            1995.889                         121.672
  2455672.893137            1792.957                         107.131
  2455673.911736            1932.147                          99.242
  2455674.917778                -NaN                            -NaN
  2455693.760787            2672.874                          84.580
  2455694.768414            2550.302                          79.886
  2455695.763796            2623.231                          97.210
  2455696.762361            2703.748                         117.049
  2455697.780463            2710.547                         102.477
  2455724.696829            3203.168                          83.867
  2455726.693183            3457.390                         118.869
  2455727.684653            3173.723                         100.773
  2455935.001134           -3156.386                          77.655
  2455939.012581           -3464.121                          80.086
  2455968.932731           -5689.081                          81.293
  2456024.850671           -8860.756                            -NaN
  2456029.829664           -9148.765                          71.360
  2456048.807477           -9819.244                          88.711
